%% Annual open solar flux values in units of 10^14 Wb
%%            (corrected for kinematic solar wind effects)
%% column 1 - year
%% column 2 - open solar flux from model and geomagnetic activity data
%%            values after 1900 are from geomagnetic activity using the
%%            aa and m indices using the method of Lockwood et al. (2009)
%%            values before 1900 are from the model of Vieira and Solanki (2010)
%% column 3 - open solar flux from near-Earth IMF magnetometer data
%% bad/missing data code = NaN 
%%
%% when using please cite references
%% Lockwood, M., A.P. Rouillard, and I.D. Finch 
%% The rise and fall of open solar flux during the current grand solar maximum, 
%% Ap. J., 700, 937–944, 2009. doi:10.1088/0004-637X/700/2/937
%%
%% Lockwood, M., R. Stamper and M.N. Wild
%% A doubling of the sun's coronal magnetic field during the last 100 years
%% Nature, 399, 437-439, 1999
%%
%% Vieira, L.E.A. and S.K. Solanki
%% Evolution of the solar magnetic flux on time scales of years to millennia
%% Astron & Astrophys, 509(1), A100, 2010. doi: 10.1051/0004-6361/200913276 2010
%%%%%%%%%%%%%%%%%%%%%%%%%%%%%%%%%%%%%%%%%%%%%%%%%%%
% date            OSF                  OSF
%                 from model and       from satellite
%                 geomagnetic data     IMF data  
  1.6755000e+003  6.1783232e-002             NaN
  1.6765000e+003  6.1783232e-002             NaN
  1.6775000e+003  6.1783232e-002             NaN
  1.6785000e+003  6.1783232e-002             NaN
  1.6795000e+003  6.1783232e-002             NaN
  1.6805000e+003  6.1783232e-002             NaN
  1.6815000e+003  6.1783232e-002             NaN
  1.6825000e+003  6.1783232e-002             NaN
  1.6835000e+003  6.1783232e-002             NaN
  1.6845000e+003  6.1783232e-002             NaN
  1.6855000e+003  6.1783232e-002             NaN
  1.6865000e+003  6.1783232e-002             NaN
  1.6875000e+003  6.1783232e-002             NaN
  1.6885000e+003  6.1783232e-002             NaN
  1.6895000e+003  6.1783232e-002             NaN
  1.6905000e+003  6.1783232e-002             NaN
  1.6915000e+003  6.1783232e-002             NaN
  1.6925000e+003  6.1783232e-002             NaN
  1.6935000e+003  6.1783232e-002             NaN
  1.6945000e+003  6.1783232e-002             NaN
  1.6955000e+003  6.1783232e-002             NaN
  1.6965000e+003  6.1783232e-002             NaN
  1.6975000e+003  6.1783232e-002             NaN
  1.6985000e+003  6.1783232e-002             NaN
  1.6995000e+003  6.1783232e-002             NaN
  1.7005000e+003  6.1783232e-002             NaN
  1.7015000e+003  7.2274192e-002             NaN
  1.7025000e+003  8.0830924e-002             NaN
  1.7035000e+003  1.0484674e-001             NaN
  1.7045000e+003  1.3298661e-001             NaN
  1.7055000e+003  1.5567023e-001             NaN
  1.7065000e+003  1.4940868e-001             NaN
  1.7075000e+003  1.6429251e-001             NaN
  1.7085000e+003  1.7310668e-001             NaN
  1.7095000e+003  1.8034813e-001             NaN
  1.7105000e+003  2.0236037e-001             NaN
  1.7115000e+003  2.3903927e-001             NaN
  1.7125000e+003  2.8839699e-001             NaN
  1.7135000e+003  3.4418835e-001             NaN
  1.7145000e+003  4.0299081e-001             NaN
  1.7155000e+003  4.7681948e-001             NaN
  1.7165000e+003  5.7894036e-001             NaN
  1.7175000e+003  7.0414257e-001             NaN
  1.7185000e+003  7.0710104e-001             NaN
  1.7195000e+003  8.8505227e-001             NaN
  1.7205000e+003  9.5630207e-001             NaN
  1.7215000e+003  9.3551576e-001             NaN
  1.7225000e+003  8.8984111e-001             NaN
  1.7235000e+003  8.4908213e-001             NaN
  1.7245000e+003  9.7451570e-001             NaN
  1.7255000e+003  1.0922224e+000             NaN
  1.7265000e+003  1.3487511e+000             NaN
  1.7275000e+003  1.5481181e+000             NaN
  1.7285000e+003  1.8195550e+000             NaN
  1.7295000e+003  1.6789931e+000             NaN
  1.7305000e+003  1.8451208e+000             NaN
  1.7315000e+003  1.5014885e+000             NaN
  1.7325000e+003  1.2740185e+000             NaN
  1.7335000e+003  1.1616908e+000             NaN
  1.7345000e+003  1.0416304e+000             NaN
  1.7355000e+003  1.1640273e+000             NaN
  1.7365000e+003  1.4775162e+000             NaN
  1.7375000e+003  1.4187496e+000             NaN
  1.7385000e+003  1.2373748e+000             NaN
  1.7395000e+003  1.4542276e+000             NaN
  1.7405000e+003  1.2904885e+000             NaN
  1.7415000e+003  1.4598959e+000             NaN
  1.7425000e+003  1.3576469e+000             NaN
  1.7435000e+003  1.0965284e+000             NaN
  1.7445000e+003  9.8156974e-001             NaN
  1.7455000e+003  9.4891998e-001             NaN
  1.7465000e+003  9.6544772e-001             NaN
  1.7475000e+003  1.0117400e+000             NaN
  1.7485000e+003  1.5473466e+000             NaN
  1.7495000e+003  1.9172627e+000             NaN
  1.7505000e+003  1.9340490e+000             NaN
  1.7515000e+003  1.7407828e+000             NaN
  1.7525000e+003  1.6026803e+000             NaN
  1.7535000e+003  1.5501003e+000             NaN
  1.7545000e+003  1.4201361e+000             NaN
  1.7555000e+003  1.3273131e+000             NaN
  1.7565000e+003  1.3415538e+000             NaN
  1.7575000e+003  1.5268746e+000             NaN
  1.7585000e+003  1.6882119e+000             NaN
  1.7595000e+003  1.4521400e+000             NaN
  1.7605000e+003  1.4832183e+000             NaN
  1.7615000e+003  2.0989510e+000             NaN
  1.7625000e+003  2.0694466e+000             NaN
  1.7635000e+003  1.9049034e+000             NaN
  1.7645000e+003  1.8352618e+000             NaN
  1.7655000e+003  1.5151829e+000             NaN
  1.7665000e+003  1.5555393e+000             NaN
  1.7675000e+003  1.9464927e+000             NaN
  1.7685000e+003  2.6980271e+000             NaN
  1.7695000e+003  3.2812116e+000             NaN
  1.7705000e+003  3.5859274e+000             NaN
  1.7715000e+003  3.4234886e+000             NaN
  1.7725000e+003  3.2461757e+000             NaN
  1.7735000e+003  2.7211141e+000             NaN
  1.7745000e+003  2.4332758e+000             NaN
  1.7755000e+003  1.9528398e+000             NaN
  1.7765000e+003  1.8317947e+000             NaN
  1.7775000e+003  1.9975018e+000             NaN
  1.7785000e+003  2.4822326e+000             NaN
  1.7795000e+003  2.3953933e+000             NaN
  1.7805000e+003  2.0715103e+000             NaN
  1.7815000e+003  2.2581736e+000             NaN
  1.7825000e+003  2.1841363e+000             NaN
  1.7835000e+003  1.9232697e+000             NaN
  1.7845000e+003  1.7623146e+000             NaN
  1.7855000e+003  1.8096598e+000             NaN
  1.7865000e+003  2.2514605e+000             NaN
  1.7875000e+003  2.6163420e+000             NaN
  1.7885000e+003  2.7201224e+000             NaN
  1.7895000e+003  2.4371973e+000             NaN
  1.7905000e+003  2.2185830e+000             NaN
  1.7915000e+003  1.9897712e+000             NaN
  1.7925000e+003  1.7572603e+000             NaN
  1.7935000e+003  1.6627554e+000             NaN
  1.7945000e+003  1.7785472e+000             NaN
  1.7955000e+003  1.9224467e+000             NaN
  1.7965000e+003  1.8463422e+000             NaN
  1.7975000e+003  1.7265573e+000             NaN
  1.7985000e+003  1.6713314e+000             NaN
  1.7995000e+003  1.6283334e+000             NaN
  1.8005000e+003  1.5948383e+000             NaN
  1.8015000e+003  2.0289464e+000             NaN
  1.8025000e+003  1.9782778e+000             NaN
  1.8035000e+003  1.6814569e+000             NaN
  1.8045000e+003  1.5854540e+000             NaN
  1.8055000e+003  1.4970055e+000             NaN
  1.8065000e+003  1.4407946e+000             NaN
  1.8075000e+003  1.2228037e+000             NaN
  1.8085000e+003  1.1268189e+000             NaN
  1.8095000e+003  1.0800582e+000             NaN
  1.8105000e+003  1.0120408e+000             NaN
  1.8115000e+003  9.6985157e-001             NaN
  1.8125000e+003  9.5142193e-001             NaN
  1.8135000e+003  9.7185929e-001             NaN
  1.8145000e+003  9.8348050e-001             NaN
  1.8155000e+003  1.0102053e+000             NaN
  1.8165000e+003  1.1402019e+000             NaN
  1.8175000e+003  1.1350375e+000             NaN
  1.8185000e+003  1.0474026e+000             NaN
  1.8195000e+003  1.0011206e+000             NaN
  1.8205000e+003  9.2923349e-001             NaN
  1.8215000e+003  8.7048704e-001             NaN
  1.8225000e+003  9.1044186e-001             NaN
  1.8235000e+003  9.4888662e-001             NaN
  1.8245000e+003  1.1029225e+000             NaN
  1.8255000e+003  1.2873350e+000             NaN
  1.8265000e+003  1.5475010e+000             NaN
  1.8275000e+003  1.8858599e+000             NaN
  1.8285000e+003  2.1368854e+000             NaN
  1.8295000e+003  2.1884037e+000             NaN
  1.8305000e+003  2.2473528e+000             NaN
  1.8315000e+003  2.1069224e+000             NaN
  1.8325000e+003  1.8726772e+000             NaN
  1.8335000e+003  1.6989569e+000             NaN
  1.8345000e+003  1.7817554e+000             NaN
  1.8355000e+003  2.2885296e+000             NaN
  1.8365000e+003  3.2359282e+000             NaN
  1.8375000e+003  3.8593668e+000             NaN
  1.8385000e+003  3.6827312e+000             NaN
  1.8395000e+003  3.4721061e+000             NaN
  1.8405000e+003  3.3691069e+000             NaN
  1.8415000e+003  3.0458584e+000             NaN
  1.8425000e+003  2.7847375e+000             NaN
  1.8435000e+003  2.5552921e+000             NaN
  1.8445000e+003  2.3891661e+000             NaN
  1.8455000e+003  2.4215844e+000             NaN
  1.8465000e+003  2.5277984e+000             NaN
  1.8475000e+003  2.5953715e+000             NaN
  1.8485000e+003  3.0481808e+000             NaN
  1.8495000e+003  3.2176292e+000             NaN
  1.8505000e+003  2.9132030e+000             NaN
  1.8515000e+003  2.8025046e+000             NaN
  1.8525000e+003  2.7442892e+000             NaN
  1.8535000e+003  2.5587396e+000             NaN
  1.8545000e+003  2.2882904e+000             NaN
  1.8555000e+003  2.0789972e+000             NaN
  1.8565000e+003  1.9626528e+000             NaN
  1.8575000e+003  2.0450631e+000             NaN
  1.8585000e+003  2.3904896e+000             NaN
  1.8595000e+003  2.7965851e+000             NaN
  1.8605000e+003  3.0252157e+000             NaN
  1.8615000e+003  2.9160016e+000             NaN
  1.8625000e+003  2.5963025e+000             NaN
  1.8635000e+003  2.3861333e+000             NaN
  1.8645000e+003  2.2751499e+000             NaN
  1.8655000e+003  2.1440667e+000             NaN
  1.8665000e+003  2.0120417e+000             NaN
  1.8675000e+003  1.8692892e+000             NaN
  1.8685000e+003  2.0584020e+000             NaN
  1.8695000e+003  2.5769042e+000             NaN
  1.8705000e+003  3.0719978e+000             NaN
  1.8715000e+003  3.2122921e+000             NaN
  1.8725000e+003  3.0482726e+000             NaN
  1.8735000e+003  2.7820914e+000             NaN
  1.8745000e+003  2.4298679e+000             NaN
  1.8755000e+003  2.1106160e+000             NaN
  1.8765000e+003  1.9292241e+000             NaN
  1.8775000e+003  1.8600305e+000             NaN
  1.8785000e+003  1.7559110e+000             NaN
  1.8795000e+003  1.7038555e+000             NaN
  1.8805000e+003  1.8719904e+000             NaN
  1.8815000e+003  2.1607991e+000             NaN
  1.8825000e+003  2.2397705e+000             NaN
  1.8835000e+003  2.2297693e+000             NaN
  1.8845000e+003  2.4404140e+000             NaN
  1.8855000e+003  2.2517890e+000             NaN
  1.8865000e+003  1.9732454e+000             NaN
  1.8875000e+003  1.7523758e+000             NaN
  1.8885000e+003  1.6947553e+000             NaN
  1.8895000e+003  1.6691688e+000             NaN
  1.8905000e+003  1.6823861e+000             NaN
  1.8915000e+003  2.0016450e+000             NaN
  1.8925000e+003  2.4871254e+000             NaN
  1.8935000e+003  2.8242478e+000             NaN
  1.8945000e+003  3.0276089e+000             NaN
  1.8955000e+003  2.8016076e+000             NaN
  1.8965000e+003  2.4556584e+000             NaN
  1.8975000e+003  2.2593129e+000             NaN
  1.8985000e+003  2.1401338e+000             NaN
  1.8995000e+003  1.9768270e+000             NaN
  1.9005000e+003  1.8653795e+000             NaN
  1.9015000e+003  1.7345176e+000             NaN
  1.9025000e+003  1.6806643e+000             NaN
  1.9035000e+003  1.8064747e+000             NaN
  1.9045000e+003  1.3866538e+000             NaN
  1.9055000e+003  2.0273592e+000             NaN
  1.9065000e+003  1.5356396e+000             NaN
  1.9075000e+003  2.1364864e+000             NaN
  1.9085000e+003  2.5016311e+000             NaN
  1.9095000e+003  2.0822094e+000             NaN
  1.9105000e+003  2.4533282e+000             NaN
  1.9115000e+003  2.0353353e+000             NaN
  1.9125000e+003  1.3539445e+000             NaN
  1.9135000e+003  1.2208112e+000             NaN
  1.9145000e+003  1.8551698e+000             NaN
  1.9155000e+003  2.9664609e+000             NaN
  1.9165000e+003  3.2597556e+000             NaN
  1.9175000e+003  3.5323056e+000             NaN
  1.9185000e+003  3.9195960e+000             NaN
  1.9195000e+003  3.6291705e+000             NaN
  1.9205000e+003  3.0607948e+000             NaN
  1.9215000e+003  2.1732473e+000             NaN
  1.9225000e+003  2.4141734e+000             NaN
  1.9235000e+003  1.5337472e+000             NaN
  1.9245000e+003  1.6660568e+000             NaN
  1.9255000e+003  2.4989465e+000             NaN
  1.9265000e+003  3.6153313e+000             NaN
  1.9275000e+003  2.9230508e+000             NaN
  1.9285000e+003  3.2166300e+000             NaN
  1.9295000e+003  3.5544713e+000             NaN
  1.9305000e+003  3.8352114e+000             NaN
  1.9315000e+003  2.8279852e+000             NaN
  1.9325000e+003  2.8199827e+000             NaN
  1.9335000e+003  2.5004386e+000             NaN
  1.9345000e+003  2.2371300e+000             NaN
  1.9355000e+003  2.6732176e+000             NaN
  1.9365000e+003  3.0859666e+000             NaN
  1.9375000e+003  3.8839641e+000             NaN
  1.9385000e+003  3.8448452e+000             NaN
  1.9395000e+003  4.5986121e+000             NaN
  1.9405000e+003  3.9340978e+000             NaN
  1.9415000e+003  4.2289323e+000             NaN
  1.9425000e+003  3.2094526e+000             NaN
  1.9435000e+003  3.4223388e+000             NaN
  1.9445000e+003  2.8988181e+000             NaN
  1.9455000e+003  2.8218775e+000             NaN
  1.9465000e+003  4.4136482e+000             NaN
  1.9475000e+003  5.1187465e+000             NaN
  1.9485000e+003  4.2204519e+000             NaN
  1.9495000e+003  4.6764537e+000             NaN
  1.9505000e+003  4.6396320e+000             NaN
  1.9515000e+003  4.2170630e+000             NaN
  1.9525000e+003  3.8346020e+000             NaN
  1.9535000e+003  3.2575125e+000             NaN
  1.9545000e+003  2.8052806e+000             NaN
  1.9555000e+003  3.0487666e+000             NaN
  1.9565000e+003  4.8152120e+000             NaN
  1.9575000e+003  5.5652597e+000             NaN
  1.9585000e+003  5.1126133e+000             NaN
  1.9595000e+003  5.0198015e+000             NaN
  1.9605000e+003  5.3950518e+000             NaN
  1.9615000e+003  3.8556956e+000             NaN
  1.9625000e+003  2.9529755e+000             NaN
  1.9635000e+003  2.9117024e+000             NaN
  1.9645000e+003  2.4830966e+000             NaN
  1.9655000e+003  2.3116495e+000             NaN
  1.9665000e+003  2.9410104e+000             NaN
  1.9675000e+003  3.4007953e+000  3.6267344e+000
  1.9685000e+003  3.7048188e+000  3.4554178e+000
  1.9695000e+003  3.4488120e+000  3.2048889e+000
  1.9705000e+003  3.4481828e+000             NaN
  1.9715000e+003  3.1287010e+000             NaN
  1.9725000e+003  3.0954189e+000             NaN
  1.9735000e+003  3.6257543e+000             NaN
  1.9745000e+003  3.7733628e+000  4.1628190e+000
  1.9755000e+003  3.0138328e+000  3.3779220e+000
  1.9765000e+003  3.2819980e+000  3.1843570e+000
  1.9775000e+003  3.0229528e+000  3.1677669e+000
  1.9785000e+003  4.2037222e+000  3.5127585e+000
  1.9795000e+003  3.8137502e+000  3.8442842e+000
  1.9805000e+003  3.5072524e+000  3.7232412e+000
  1.9815000e+003  4.6543323e+000  4.6372410e+000
  1.9825000e+003  5.5781025e+000  5.7487642e+000
  1.9835000e+003  3.9656687e+000  4.4189795e+000
  1.9845000e+003  3.8240353e+000  5.0399403e+000
  1.9855000e+003  3.0422939e+000  3.5692801e+000
  1.9865000e+003  2.8305583e+000  3.4728364e+000
  1.9875000e+003  3.0176996e+000  3.3362519e+000
  1.9885000e+003  3.6329532e+000  3.8153834e+000
  1.9895000e+003  4.9705862e+000  4.4857521e+000
  1.9905000e+003  4.4178883e+000  4.1598783e+000
  1.9915000e+003  5.6492417e+000  5.5118770e+000
  1.9925000e+003  4.4567988e+000  4.4466305e+000
  1.9935000e+003  3.5209104e+000  3.7864879e+000
  1.9945000e+003  3.6868805e+000  3.6111635e+000
  1.9955000e+003  2.9898522e+000  2.6673882e+000
  1.9965000e+003  2.3261560e+000  2.7468623e+000
  1.9975000e+003  2.5080173e+000  2.5066429e+000
  1.9985000e+003  3.6622454e+000  3.2404223e+000
  1.9995000e+003  3.6801640e+000  3.1607345e+000
  2.0005000e+003  4.2588052e+000  3.3065886e+000
  2.0015000e+003  3.7106469e+000  3.1161008e+000
  2.0025000e+003  3.9405609e+000  3.8589230e+000
  2.0035000e+003  4.3481578e+000  4.1812062e+000
  2.0045000e+003  3.2162320e+000  3.2358716e+000
  2.0055000e+003  3.2166344e+000  3.0756561e+000
  2.0065000e+003  2.2989212e+000  2.0690567e+000
  2.0075000e+003  1.9630845e+000  1.8072045e+000
  2.0085000e+003  1.5677040e+000  1.8331148e+000
  2.0095000e+003  1.8000000e+000  1.5000000e+000
  2.0105000e+003  1.3000000e+000  1.3000000e+000
